822.71417	69
824.19464	31
825.67505	57
827.15546	12
828.63593	16
830.11633	43
831.59674	-16
833.07715	1
834.55756	75
836.03796	11
837.51831	-19
838.99872	31
840.47913	11
841.95947	-6
843.43982	33
844.92023	41
846.40057	51
847.88092	51
849.36127	13
850.84161	85
852.32196	22
853.80231	49
855.28265	77
856.76294	33
858.24329	34
859.72357	44
861.20392	49
862.6842	51
864.16449	11
865.64478	31
867.12506	21
868.60535	53
870.08563	12
871.56592	41
873.04614	-3
874.52643	18
876.00665	32
877.48694	3
878.96716	24
880.44739	36
881.92761	22
883.40784	57
884.88806	34
886.36829	-6
887.84851	-7
889.32867	-59
890.8089	30
892.28906	31
893.76929	21
895.24945	-6
896.72961	74
898.20978	67
899.68994	28
901.1701	99
902.65027	71
904.13037	46
905.61053	87
907.09064	-3
908.57074	57
910.0509	73
911.53101	104
913.01111	79
914.49121	90
915.97131	108
917.45135	56
918.93146	97
920.4115	124
921.8916	59
923.37164	88
924.85168	115
926.33173	85
927.81177	127
929.29181	134
930.77185	101
932.25183	200
933.73187	98
935.21185	140
936.69189	107
938.17188	194
939.65186	121
941.13184	142
942.61182	141
944.0918	187
945.57172	114
947.0517	129
948.53162	159
950.01154	155
951.49152	147
952.97144	187
954.45135	219
955.93121	200
957.41113	229
958.89105	239
960.37091	189
961.85083	245
963.33069	280
964.81055	245
966.29041	283
967.77026	255
969.25012	249
970.72992	316
972.20978	317
973.68958	292
975.16943	323
976.64923	374
978.12903	318
979.60883	362
981.08862	400
982.56836	380
984.04816	416
985.52789	359
987.00769	434
988.48743	390
989.96716	425
991.4469	457
992.92664	464
994.40631	460
995.88605	505
997.36572	523
998.84546	499
1000.3251	512
1001.8048	571
1003.2845	521
1004.7642	569
1006.2438	534
1007.7234	649
1009.2031	599
1010.6827	612
1012.1624	594
1013.642	604
1015.1215	634
1016.6011	673
1018.0807	677
1019.5603	658
1021.0399	737
1022.5195	674
1023.999	656
1025.4785	669
1026.9581	762
1028.4376	711
1029.9171	770
1031.3967	777
1032.8762	738
1034.3557	789
1035.8352	809
1037.3147	810
1038.7942	830
1040.2736	815
1041.7531	808
1043.2325	851
1044.7119	813
1046.1914	811
1047.6708	858
1049.1501	855
1050.6296	871
1052.109	806
1053.5884	813
1055.0677	850
1056.5471	921
1058.0265	885
1059.5059	835
1060.9852	838
1062.4645	872
1063.9438	862
1065.4232	833
1066.9025	871
1068.3818	797
1069.8611	881
1071.3403	795
1072.8196	848
1074.2988	833
1075.7781	832
1077.2573	805
1078.7366	855
1080.2158	733
1081.6951	866
1083.1742	847
1084.6534	817
1086.1327	826
1087.6118	746
1089.0909	836
1090.5702	795
1092.0493	753
1093.5284	746
1095.0076	698
1096.4867	772
1097.9658	791
1099.4449	728
1100.924	711
1102.4031	725
1103.8822	722
1105.3612	702
1106.8402	703
1108.3193	657
1109.7983	694
1111.2773	671
1112.7563	643
1114.2354	629
1115.7144	590
1117.1934	561
1118.6724	623
1120.1514	532
1121.6302	524
1123.1093	523
1124.5881	476
1126.0671	481
1127.546	420
1129.0249	478
1130.5038	398
1131.9827	460
1133.4615	444
1134.9404	433
1136.4193	369
1137.8981	411
1139.377	338
1140.8558	302
1142.3346	323
1143.8134	264
1145.2922	274
1146.771	255
1148.2498	252
1149.7285	190
1151.2073	205
1152.686	233
1154.1647	219
1155.6434	234
1157.1222	225
1158.6008	229
1160.0796	240
1161.5582	235
1163.0369	200
1164.5155	229
1165.9941	270
1167.4728	221
1168.9514	141
1170.4301	231
1171.9087	252
1173.3872	160
1174.8658	232
1176.3444	205
1177.823	180
1179.3015	189
1180.78	117
1182.2585	146
1183.7371	102
1185.2156	169
1186.6941	170
1188.1726	156
1189.651	168
1191.1295	158
1192.6079	165
1194.0864	127
1195.5648	129
1197.0432	111
1198.5216	98
1200	132
1201.4784	152
1202.9568	174
1204.4351	80
1205.9135	122
1207.3918	60
1208.8701	142
1210.3484	111
1211.8267	84
1213.3051	85
1214.7833	118
1216.2616	97
1217.7397	80
1219.218	92
1220.6963	83
1222.1744	97
1223.6527	106
1225.1309	83
1226.6091	40
1228.0873	109
1229.5654	69
1231.0436	84
1232.5217	124
1233.9998	85
1235.4779	100
1236.9561	93
1238.4341	41
1239.9122	111
1241.3903	91
1242.8683	70
1244.3463	83
1245.8243	59
1247.3024	64
1248.7804	4
1250.2584	43
1251.7363	120
1253.2144	83
1254.6923	62
1256.1702	6
1257.6482	20
1259.1261	54
1260.604	44
1262.0818	101
1263.5597	60
1265.0376	114
1266.5155	11
1267.9933	106
1269.4711	88
1270.949	39
1272.4268	19
1273.9045	30
1275.3823	12
1276.8601	20
1278.3378	67
1279.8156	42
1281.2933	16
1282.771	62
1284.2487	42
1285.7264	71
1287.2041	11
1288.6818	39
1290.1594	-5
1291.6371	43
1293.1146	69
1294.5923	22
1296.0698	57
1297.5475	62
1299.025	93
1300.5026	60
1301.9801	35
1303.4576	5
1304.9352	67
1306.4127	32
1307.8901	-19
1309.3677	65
1310.8451	9
1312.3226	17
1313.8	3
1315.2775	67
1316.7549	16
1318.2323	43
1319.7096	40
1321.187	54
1322.6644	39
1324.1417	14
1325.619	22
1327.0964	8
1328.5737	44
1330.051	25
1331.5282	21
1333.0055	25
1334.4828	49
1335.96	27
1337.4373	52
1338.9144	30
1340.3916	47
1341.8688	21
1343.3459	23
1344.8231	53
1346.3003	40
1347.7775	-4
1349.2545	28
1350.7316	57
1352.2087	58
1353.6858	53
1355.1628	3
1356.6399	12
1358.1169	74
1359.5939	38
1361.0709	-28
1362.5479	33
1364.0249	38
1365.5018	51
1366.9788	39
1368.4557	101
1369.9326	38
1371.4095	38
1372.8864	1
1374.3633	16
1375.8401	46
1377.317	-7
1378.7938	40
1380.2706	2
1381.7474	78
1383.2242	-4
1384.7009	1
1386.1777	55
1387.6544	46
1389.1312	60
1390.6079	16
1392.0846	64
1393.5613	24
1395.038	-30
1396.5146	32
1397.9912	-22
1399.4679	12
1400.9445	-5
1402.421	10
1403.8976	-7
1405.3743	51
1406.8507	24
1408.3273	-38
1409.8038	7
1411.2803	51
1412.7568	-4
1414.2333	31
1415.7097	59
1417.1862	-11
1418.6626	0
1420.139	-4
1421.6154	41
1423.0918	-1
1424.5681	37
1426.0446	20
1427.5209	47
1428.9972	19
1430.4735	18
1431.9497	77
1433.426	37
1434.9023	21
1436.3785	27
1437.8547	20
1439.3309	55
1440.8071	12
1442.2833	39
1443.7595	46
1445.2357	-12
1446.7118	9
1448.1879	53
1449.6641	63
1451.1401	30
1452.6162	42
1454.0923	41
1455.5682	11
1457.0443	26
1458.5203	42
1459.9963	70
1461.4723	50
1462.9482	23
1464.4242	-24
1465.9001	-6
1467.376	5
1468.8519	-2
1470.3278	61
1471.8037	22
1473.2795	51
1474.7554	2
1476.2312	67
1477.7069	36
1479.1827	32
1480.6584	82
1482.1343	66
1483.61	80
1485.0857	-24
1486.5614	17
1488.0371	13
1489.5128	134
1490.9884	-15
1492.4641	25
1493.9397	59
1495.4153	38
1496.8909	29
1498.3665	31
1499.842	11
1501.3175	3
1502.7931	-9
1504.2686	41
1505.744	27
1507.2195	61
1508.6949	-8
1510.1704	16
1511.6458	34
1513.1212	43
1514.5966	56
1516.072	79
1517.5474	4
1519.0227	61
1520.4979	0
1521.9733	16
1523.4486	64
1524.9238	53
1526.399	-8
1527.8743	42
1529.3495	63
1530.8247	75
1532.2999	18
1533.775	-4
1535.2502	-1
1536.7253	43
1538.2004	52
1539.6755	31
1541.1506	-5
1542.6257	55
1544.1007	-43
1545.5758	40
1547.0508	44
1548.5258	93
1550.0007	45
1551.4757	45
1552.9506	8
1554.4255	61
1555.9004	23
1557.3754	9
1558.8502	48
1560.3251	11
1561.7999	25
1563.2747	19
1564.7495	48
1566.2242	55
1567.699	43
1569.1737	8
1570.6484	-2
1572.1232	2
1573.5979	65
1575.0725	65
1576.5472	3
1578.0219	41


Date and Time:                Thu Sep 12 12:05:34.000 2019
Software Version:             4.30.30034.0
Temperature (C):              -70
Model:                        DU490_17
Data Type:                    Counts (Bg Corrected)
Acquisition Mode:             Accumulate
Trigger Mode:                 Internal
Exposure Time (secs):         5
Accumulate Cycle Time (secs): 5.0052
Frequency (Hz):               0.19979
Number of Accumulations:      5
Readout Mode:                 Full Vertical Binning
Horizontal binning:           1
Extended Dynamic Range:       off
Horizontally flipped:         true
Vertical Shift Speed (usecs): 0
Pixel Readout Time (usecs):   10
Serial Number:                22317
Pre-Amplifier Gain:           1.000000
Spurious Noise Filter Mode:   No Filter
Photon counted:               false
Data Averaging Filter Mode:   No Filter
SR328i:
Serial Number:                
Wavelength (nm):              1200
Grating Groove Density (l/mm):50.032
Grating Blaze:                600nm
Output Flipper Port:          Side
Filter:                       3-850 LPDi

