822.71417	11
824.19464	82
825.67505	74
827.15546	15
828.63593	18
830.11633	33
831.59674	4
833.07715	13
834.55756	30
836.03796	-21
837.51831	-16
838.99872	37
840.47913	-23
841.95947	24
843.43982	72
844.92023	2
846.40057	49
847.88092	22
849.36127	-36
850.84161	91
852.32196	18
853.80231	52
855.28265	17
856.76294	16
858.24329	30
859.72357	22
861.20392	28
862.6842	51
864.16449	-4
865.64478	30
867.12506	20
868.60535	64
870.08563	-11
871.56592	-10
873.04614	22
874.52643	29
876.00665	-2
877.48694	11
878.96716	22
880.44739	71
881.92761	18
883.40784	22
884.88806	37
886.36829	37
887.84851	4
889.32867	-49
890.8089	42
892.28906	28
893.76929	3
895.24945	-3
896.72961	58
898.20978	49
899.68994	6
901.1701	49
902.65027	14
904.13037	66
905.61053	59
907.09064	39
908.57074	13
910.0509	19
911.53101	79
913.01111	46
914.49121	66
915.97131	-8
917.45135	47
918.93146	46
920.4115	91
921.8916	7
923.37164	51
924.85168	30
926.33173	8
927.81177	45
929.29181	72
930.77185	54
932.25183	95
933.73187	45
935.21185	75
936.69189	35
938.17188	82
939.65186	74
941.13184	106
942.61182	14
944.0918	77
945.57172	44
947.0517	61
948.53162	47
950.01154	43
951.49152	55
952.97144	70
954.45135	131
955.93121	64
957.41113	80
958.89105	50
960.37091	80
961.85083	81
963.33069	114
964.81055	128
966.29041	78
967.77026	65
969.25012	73
970.72992	177
972.20978	103
973.68958	93
975.16943	116
976.64923	152
978.12903	121
979.60883	137
981.08862	144
982.56836	162
984.04816	193
985.52789	124
987.00769	165
988.48743	143
989.96716	143
991.4469	189
992.92664	161
994.40631	169
995.88605	186
997.36572	212
998.84546	175
1000.3251	183
1001.8048	247
1003.2845	176
1004.7642	167
1006.2438	203
1007.7234	232
1009.2031	226
1010.6827	237
1012.1624	207
1013.642	204
1015.1215	212
1016.6011	256
1018.0807	237
1019.5603	190
1021.0399	246
1022.5195	229
1023.999	250
1025.4785	266
1026.9581	270
1028.4376	228
1029.9171	299
1031.3967	265
1032.8762	246
1034.3557	244
1035.8352	287
1037.3147	263
1038.7942	292
1040.2736	341
1041.7531	248
1043.2325	300
1044.7119	332
1046.1914	305
1047.6708	268
1049.1501	309
1050.6296	320
1052.109	284
1053.5884	245
1055.0677	312
1056.5471	290
1058.0265	286
1059.5059	273
1060.9852	260
1062.4645	251
1063.9438	280
1065.4232	264
1066.9025	301
1068.3818	276
1069.8611	317
1071.3403	303
1072.8196	309
1074.2988	267
1075.7781	314
1077.2573	286
1078.7366	318
1080.2158	288
1081.6951	312
1083.1742	352
1084.6534	266
1086.1327	336
1087.6118	244
1089.0909	295
1090.5702	271
1092.0493	290
1093.5284	276
1095.0076	214
1096.4867	245
1097.9658	279
1099.4449	250
1100.924	293
1102.4031	293
1103.8822	262
1105.3612	253
1106.8402	275
1108.3193	228
1109.7983	302
1111.2773	268
1112.7563	242
1114.2354	215
1115.7144	223
1117.1934	205
1118.6724	297
1120.1514	199
1121.6302	211
1123.1093	197
1124.5881	194
1126.0671	189
1127.546	163
1129.0249	233
1130.5038	158
1131.9827	132
1133.4615	204
1134.9404	227
1136.4193	124
1137.8981	162
1139.377	177
1140.8558	132
1142.3346	167
1143.8134	122
1145.2922	135
1146.771	111
1148.2498	100
1149.7285	118
1151.2073	44
1152.686	99
1154.1647	74
1155.6434	137
1157.1222	53
1158.6008	139
1160.0796	107
1161.5582	116
1163.0369	78
1164.5155	64
1165.9941	101
1167.4728	170
1168.9514	39
1170.4301	131
1171.9087	109
1173.3872	50
1174.8658	121
1176.3444	96
1177.823	123
1179.3015	103
1180.78	10
1182.2585	0
1183.7371	45
1185.2156	95
1186.6941	98
1188.1726	92
1189.651	64
1191.1295	34
1192.6079	74
1194.0864	72
1195.5648	42
1197.0432	53
1198.5216	62
1200	82
1201.4784	99
1202.9568	123
1204.4351	-3
1205.9135	23
1207.3918	34
1208.8701	62
1210.3484	64
1211.8267	48
1213.3051	50
1214.7833	42
1216.2616	85
1217.7397	13
1219.218	-4
1220.6963	59
1222.1744	55
1223.6527	45
1225.1309	36
1226.6091	28
1228.0873	43
1229.5654	36
1231.0436	58
1232.5217	55
1233.9998	76
1235.4779	90
1236.9561	60
1238.4341	34
1239.9122	85
1241.3903	65
1242.8683	30
1244.3463	37
1245.8243	24
1247.3024	5
1248.7804	14
1250.2584	42
1251.7363	58
1253.2144	135
1254.6923	82
1256.1702	-26
1257.6482	41
1259.1261	50
1260.604	-24
1262.0818	86
1263.5597	3
1265.0376	74
1266.5155	-5
1267.9933	20
1269.4711	55
1270.949	-3
1272.4268	20
1273.9045	31
1275.3823	66
1276.8601	30
1278.3378	55
1279.8156	-11
1281.2933	-5
1282.771	27
1284.2487	42
1285.7264	39
1287.2041	26
1288.6818	43
1290.1594	-17
1291.6371	57
1293.1146	71
1294.5923	24
1296.0698	41
1297.5475	84
1299.025	34
1300.5026	25
1301.9801	51
1303.4576	33
1304.9352	4
1306.4127	46
1307.8901	18
1309.3677	41
1310.8451	11
1312.3226	28
1313.8	12
1315.2775	90
1316.7549	48
1318.2323	51
1319.7096	43
1321.187	49
1322.6644	0
1324.1417	10
1325.619	39
1327.0964	-26
1328.5737	36
1330.051	-6
1331.5282	51
1333.0055	67
1334.4828	26
1335.96	45
1337.4373	69
1338.9144	15
1340.3916	16
1341.8688	17
1343.3459	56
1344.8231	47
1346.3003	75
1347.7775	12
1349.2545	30
1350.7316	49
1352.2087	44
1353.6858	64
1355.1628	19
1356.6399	-3
1358.1169	71
1359.5939	78
1361.0709	-26
1362.5479	62
1364.0249	70
1365.5018	52
1366.9788	-12
1368.4557	132
1369.9326	50
1371.4095	19
1372.8864	49
1374.3633	70
1375.8401	24
1377.317	18
1378.7938	40
1380.2706	6
1381.7474	49
1383.2242	-37
1384.7009	22
1386.1777	-5
1387.6544	29
1389.1312	56
1390.6079	2
1392.0846	81
1393.5613	17
1395.038	-12
1396.5146	-11
1397.9912	24
1399.4679	38
1400.9445	42
1402.421	33
1403.8976	-3
1405.3743	9
1406.8507	70
1408.3273	-49
1409.8038	-30
1411.2803	60
1412.7568	35
1414.2333	20
1415.7097	99
1417.1862	21
1418.6626	-10
1420.139	-3
1421.6154	14
1423.0918	-1
1424.5681	30
1426.0446	43
1427.5209	-5
1428.9972	-47
1430.4735	8
1431.9497	60
1433.426	74
1434.9023	19
1436.3785	9
1437.8547	-7
1439.3309	33
1440.8071	23
1442.2833	-8
1443.7595	50
1445.2357	49
1446.7118	4
1448.1879	39
1449.6641	26
1451.1401	55
1452.6162	40
1454.0923	65
1455.5682	25
1457.0443	53
1458.5203	-10
1459.9963	25
1461.4723	51
1462.9482	-44
1464.4242	-87
1465.9001	27
1467.376	53
1468.8519	1
1470.3278	54
1471.8037	35
1473.2795	79
1474.7554	37
1476.2312	38
1477.7069	53
1479.1827	53
1480.6584	63
1482.1343	74
1483.61	64
1485.0857	13
1486.5614	42
1488.0371	31
1489.5128	82
1490.9884	-60
1492.4641	13
1493.9397	32
1495.4153	42
1496.8909	39
1498.3665	24
1499.842	2
1501.3175	16
1502.7931	6
1504.2686	13
1505.744	-2
1507.2195	34
1508.6949	26
1510.1704	25
1511.6458	79
1513.1212	64
1514.5966	78
1516.072	97
1517.5474	46
1519.0227	26
1520.4979	8
1521.9733	51
1523.4486	30
1524.9238	74
1526.399	-14
1527.8743	21
1529.3495	42
1530.8247	-3
1532.2999	-19
1533.775	-27
1535.2502	7
1536.7253	98
1538.2004	52
1539.6755	13
1541.1506	15
1542.6257	30
1544.1007	-14
1545.5758	27
1547.0508	-1
1548.5258	91
1550.0007	13
1551.4757	28
1552.9506	3
1554.4255	68
1555.9004	28
1557.3754	7
1558.8502	3
1560.3251	2
1561.7999	59
1563.2747	34
1564.7495	67
1566.2242	33
1567.699	47
1569.1737	59
1570.6484	-24
1572.1232	20
1573.5979	31
1575.0725	31
1576.5472	-22
1578.0219	42


Date and Time:                Thu Sep 12 12:06:19.000 2019
Software Version:             4.30.30034.0
Temperature (C):              -70
Model:                        DU490_17
Data Type:                    Counts (Bg Corrected)
Acquisition Mode:             Accumulate
Trigger Mode:                 Internal
Exposure Time (secs):         5
Accumulate Cycle Time (secs): 5.0052
Frequency (Hz):               0.19979
Number of Accumulations:      5
Readout Mode:                 Full Vertical Binning
Horizontal binning:           1
Extended Dynamic Range:       off
Horizontally flipped:         true
Vertical Shift Speed (usecs): 0
Pixel Readout Time (usecs):   10
Serial Number:                22317
Pre-Amplifier Gain:           1.000000
Spurious Noise Filter Mode:   No Filter
Photon counted:               false
Data Averaging Filter Mode:   No Filter
SR328i:
Serial Number:                
Wavelength (nm):              1200
Grating Groove Density (l/mm):50.032
Grating Blaze:                600nm
Output Flipper Port:          Side
Filter:                       3-850 LPDi

