421.91687	25
423.4003	107
424.8837	61
426.3671	80
427.85049	33
429.33389	66
430.81729	17
432.30069	50
433.78409	64
435.26746	8
436.75085	-3
438.23422	41
439.71759	-12
441.20096	33
442.68433	80
444.16769	84
445.65103	76
447.1344	56
448.61774	19
450.10107	118
451.58441	64
453.06775	36
454.55109	74
456.03442	65
457.51773	59
459.00107	72
460.48438	76
461.96768	93
463.45099	18
464.9343	61
466.4176	38
467.90088	71
469.38419	57
470.86746	35
472.35074	91
473.83401	62
475.31729	35
476.80057	62
478.28381	58
479.76709	45
481.25034	79
482.73358	75
484.21683	69
485.70007	46
487.18329	89
488.66653	-18
490.14975	78
491.63297	68
493.11618	40
494.5994	60
496.08261	120
497.5658	106
499.04901	45
500.5322	93
502.01538	114
503.49857	112
504.98175	109
506.4649	86
507.94809	39
509.43124	96
510.9144	111
512.39758	93
513.88068	116
515.36383	86
516.84698	130
518.33008	128
519.81323	143
521.29633	110
522.77948	125
524.26257	128
525.74567	85
527.22876	105
528.71185	131
530.19495	131
531.67804	120
533.16113	138
534.64417	171
536.12726	108
537.61029	185
539.09338	154
540.57642	164
542.05945	152
543.54248	186
545.02551	175
546.50854	143
547.99158	194
549.47461	131
550.95758	171
552.44061	170
553.92358	185
555.40662	200
556.88959	191
558.37256	194
559.85553	235
561.3385	199
562.82147	273
564.30444	196
565.78735	231
567.27032	221
568.75323	233
570.23621	250
571.71912	282
573.20203	248
574.68494	252
576.16785	302
577.65076	230
579.13367	263
580.61652	297
582.09943	290
583.58228	301
585.06519	253
586.54803	282
588.03088	279
589.51373	268
590.99658	302
592.47943	233
593.96222	289
595.44507	266
596.92786	284
598.41071	239
599.89349	315
601.37628	296
602.85907	245
604.34186	262
605.82465	264
607.30743	324
608.79016	309
610.27295	290
611.75568	249
613.2384	220
614.72113	253
616.20386	295
617.68658	269
619.16931	194
620.65204	291
622.1347	244
623.61743	170
625.1001	221
626.58276	265
628.06549	201
629.54816	224
631.03076	268
632.51343	152
633.99609	218
635.4787	241
636.96136	241
638.44397	223
639.92657	268
641.40918	212
642.89178	256
644.37439	315
645.85693	281
647.33954	343
648.82208	441
650.30469	517
651.78723	1168
653.26978	1875
654.75232	3899
656.23486	11901
657.71735	48476
659.19989	98464
660.68237	131965
662.16492	144484
663.6474	138528
665.12988	92611
666.61237	32254
668.09479	5539
669.57727	1549
671.05975	586
672.54218	414
674.0246	307
675.50702	294
676.98944	255
678.47186	295
679.95428	227
681.43671	244
682.91907	264
684.40143	241
685.88385	227
687.36621	171
688.84857	228
690.33087	210
691.81323	138
693.29559	203
694.77789	168
696.26019	193
697.74249	184
699.22479	268
700.70709	247
702.18939	255
703.67163	193
705.15393	243
706.63617	220
708.11841	207
709.60065	219
711.08289	257
712.56512	220
714.0473	202
715.52954	194
717.01172	279
718.4939	260
719.97607	217
721.45825	243
722.94043	197
724.42261	212
725.90472	255
727.38684	200
728.86896	273
730.35107	186
731.83319	285
733.31531	243
734.79736	247
736.27948	196
737.76154	217
739.24359	230
740.72565	221
742.2077	259
743.68976	209
745.17175	225
746.65381	238
748.1358	177
749.6178	206
751.09979	184
752.58173	207
754.06372	181
755.54565	266
757.02765	138
758.50958	175
759.99152	212
761.47345	187
762.95532	139
764.43726	171
765.91913	176
767.401	193
768.88287	134
770.36475	181
771.84662	175
773.32849	155
774.8103	196
776.29211	161
777.77393	179
779.25574	206
780.73755	118
782.21936	117
783.70111	107
785.18286	165
786.66461	150
788.14636	134
789.62811	113
791.10986	148
792.59155	106
794.0733	123
795.55499	123
797.03668	123
798.51831	98
800	150
801.48169	142
802.96332	152
804.44495	81
805.92657	117
807.4082	92
808.88977	114
810.3714	94
811.85297	165
813.33453	112
814.8161	55
816.29767	81
817.77917	55
819.26074	68
820.74225	56
822.22375	77
823.70526	112
825.18677	61
826.66821	34
828.14972	83
829.63116	92
831.11261	116
832.59406	107
834.0755	106
835.55688	79
837.03827	67
838.51971	58
840.0011	132
841.48242	100
842.96381	60
844.44513	87
845.92651	27
847.40784	76
848.88916	35
850.37042	47
851.85175	64
853.33301	101
854.81427	80
856.29553	21
857.77679	52
859.25806	49
860.73926	24
862.22052	117
863.70172	61
865.18292	116
866.66406	-21
868.14526	32
869.6264	57
871.10754	54
872.58868	24
874.06982	26
875.5509	73
877.03204	52
878.51312	61
879.9942	61
881.47528	39
882.95636	100
884.43738	57
885.9184	62
887.39941	4
888.88043	23
890.36145	58
891.84241	87
893.32343	67
894.80438	54
896.28534	95
897.76624	103
899.24719	53
900.72809	119
902.20898	102
903.68988	58
905.17078	92
906.65161	101
908.13251	6
909.61334	109
911.09418	87
912.57495	108
914.05579	48
915.53656	123
917.01733	21
918.49811	117
919.97888	102
921.45966	79
922.94037	74
924.42108	51
925.90179	67
927.38251	80
928.86316	82
930.34387	52
931.82452	41
933.30518	120
934.78577	106
936.26642	140
937.74701	95
939.2276	54
940.70819	67
942.18878	134
943.66931	83
945.14984	126
946.63037	124
948.1109	118
949.59143	97
951.0719	122
952.55243	112
954.0329	151
955.51331	83
956.99377	72
958.47418	156
959.95459	144
961.435	62
962.91541	165
964.39581	112
965.87616	140
967.35651	144
968.83685	223
970.31714	134
971.79749	154
973.27777	140
974.75806	180
976.23834	154
977.71857	163
979.19885	187
980.67908	179
982.1593	213
983.63953	122
985.11969	169
986.59985	176
988.08002	208
989.56018	189
991.04034	145
992.52045	221
994.00055	192
995.48065	226
996.96075	208
998.4408	196
999.9209	224
1001.4009	209
1002.8809	259
1004.361	214
1005.8409	247
1007.3209	231
1008.8009	233
1010.2809	210
1011.7608	247
1013.2408	256
1014.7207	267
1016.2006	335
1017.6805	255
1019.1603	247
1020.6402	258
1022.1201	300
1023.5999	274
1025.0797	288
1026.5596	289
1028.0393	273
1029.519	229
1030.9989	319
1032.4786	323
1033.9584	342
1035.4381	324
1036.9177	283
1038.3975	278
1039.8772	301
1041.3568	283
1042.8364	302
1044.316	336
1045.7957	341
1047.2753	290
1048.7549	344
1050.2345	344
1051.714	348
1053.1936	313
1054.6731	346
1056.1526	356
1057.6322	330
1059.1116	319
1060.5911	386
1062.0706	306
1063.55	288
1065.0294	306
1066.5089	321
1067.9883	317
1069.4677	300
1070.947	353
1072.4264	344
1073.9058	363
1075.385	348
1076.8644	341
1078.3436	356
1079.8229	321
1081.3021	368
1082.7814	328
1084.2606	328
1085.7399	272
1087.2191	331
1088.6982	280
1090.1775	402
1091.6566	187
1093.1357	285
1094.6149	311
1096.094	323
1097.5731	284
1099.0521	301
1100.5313	269
1102.0103	301
1103.4894	259
1104.9684	272
1106.4474	246
1107.9264	240
1109.4053	222
1110.8843	239
1112.3632	272
1113.8422	235
1115.321	201
1116.7999	255
1118.2788	223
1119.7577	218
1121.2366	218
1122.7153	207
1124.1942	218
1125.673	234
1127.1517	200
1128.6305	156
1130.1093	199
1131.588	185
1133.0668	167
1134.5454	136
1136.0242	152
1137.5028	180
1138.9814	134
1140.4601	119
1141.9387	100
1143.4174	140
1144.8959	136
1146.3745	116
1147.853	125
1149.3315	164
1150.8102	121
1152.2887	153
1153.7671	146
1155.2456	155
1156.7241	112
1158.2025	103
1159.6809	111
1161.1593	62
1162.6377	119
1164.1161	114
1165.5945	136
1167.0729	129
1168.5511	137
1170.0294	136
1171.5078	108
1172.9861	39
1174.4644	103
1175.9425	125
1177.4208	131
1178.899	104


Date and Time:                Thu Sep 12 12:07:08.000 2019
Software Version:             4.30.30034.0
Temperature (C):              -70
Model:                        DU490_17
Data Type:                    Counts (Bg Corrected)
Acquisition Mode:             Accumulate
Trigger Mode:                 Internal
Exposure Time (secs):         5
Accumulate Cycle Time (secs): 5.0052
Frequency (Hz):               0.19979
Number of Accumulations:      5
Readout Mode:                 Full Vertical Binning
Horizontal binning:           1
Extended Dynamic Range:       off
Horizontally flipped:         true
Vertical Shift Speed (usecs): 0
Pixel Readout Time (usecs):   10
Serial Number:                22317
Pre-Amplifier Gain:           1.000000
Spurious Noise Filter Mode:   No Filter
Photon counted:               false
Data Averaging Filter Mode:   No Filter
SR328i:
Serial Number:                
Wavelength (nm):              800
Grating Groove Density (l/mm):50.032
Grating Blaze:                600nm
Output Flipper Port:          Side
Filter:                       4-Empty 1

